# cluster coupling factor (Hz): 62.9562
# f_DD: 0.06
# scan time: 0.001

# w_scan coherence
858185 0.996605
858483 0.995827
858782 0.994125
859080 0.991497
859378 0.988023
859677 0.983865
859975 0.979262
860273 0.974518
860572 0.969982
860870 0.966522
861168 0.963297
861467 0.961276
861765 0.960689
862063 0.961699
862362 0.964313
862660 0.968391
862958 0.973629
863257 0.979555
863555 0.985538
863853 0.990818
864152 0.99451
864450 0.995682
864748 0.993372
865047 0.986665
865345 0.974735
865643 0.956923
865942 0.932773
866240 0.902094
866538 0.864987
866837 0.821871
867135 0.775147
867433 0.721894
867732 0.665499
868030 0.607504
868328 0.549642
868627 0.493714
868925 0.441562
869223 0.394873
869522 0.355341
869820 0.324184
870118 0.302573
870417 0.29127
870715 0.290514
871013 0.300466
871312 0.320652
871610 0.350379
871908 0.388595
872206 0.433949
872505 0.484927
872803 0.539785
873101 0.596729
873400 0.65384
873698 0.710858
873996 0.764809
874295 0.814317
874593 0.858337
874891 0.896133
875190 0.927313
875488 0.951818
875786 0.969883
876085 0.982014
876383 0.988913
876681 0.991433
876980 0.990507
877278 0.987091
877576 0.982112
877875 0.976416
878173 0.970749
878471 0.965684
878770 0.961695
879068 0.959032
879366 0.957821
879665 0.957658
879963 0.959786
880261 0.962931
880560 0.966732
880858 0.970826
881156 0.974859
881455 0.978524
881753 0.981587
882051 0.983892
882350 0.985375
882648 0.986057
882946 0.986029
883245 0.98544
883543 0.984474
883841 0.983327
884140 0.982186
884438 0.981213
884736 0.980526
885035 0.980199
885333 0.980236
885631 0.980602
885930 0.980729
886228 0.981974
886526 0.983161
886824 0.98408
887123 0.984541
887421 0.984384
887719 0.983513
888018 0.981901
888316 0.979594
888614 0.976728
888913 0.973502
889211 0.970182
889509 0.967063
889808 0.964454
890106 0.962642
890404 0.961862
890703 0.962271
891001 0.963921
891299 0.966734
891598 0.970506
891896 0.974885
892194 0.979393
892493 0.983097
892791 0.986626
893089 0.988243
893388 0.987113
893686 0.982421
893984 0.973423
894283 0.959481
894581 0.940128
894879 0.915088
895178 0.884331
895476 0.848081
895774 0.80684
896073 0.761382
896371 0.712737
896669 0.662175
896968 0.611116
897266 0.561138
897564 0.513831
897863 0.470765
898161 0.433419
898459 0.403064
898758 0.373677
899056 0.359937
899354 0.355662
899653 0.361002
899951 0.375709
900249 0.399271
900547 0.430842
900846 0.469332
901144 0.513462
901442 0.561779
901741 0.612747
902039 0.664788
902337 0.716348
902636 0.76596
902934 0.812281
903232 0.854202
903531 0.89081
903829 0.921526
904127 0.946034
904426 0.964349
904724 0.976766
905022 0.985372
905321 0.987682
905619 0.986226
905917 0.981993
906216 0.975987
906514 0.96917
906812 0.962409
907111 0.956427
907409 0.951786
907707 0.948858
908006 0.947829
908304 0.948703
908602 0.951309
908901 0.955345
909199 0.960384
909497 0.965936
909796 0.971472
910094 0.97648
910392 0.980501
910691 0.983168
910989 0.984233
911287 0.985031
911586 0.982833
911884 0.978969
912182 0.973688
912481 0.967321
912779 0.960254
913077 0.952884
913376 0.945579
913674 0.938677
913972 0.932412
914271 0.92697
914569 0.922417
914867 0.918752
915165 0.915898
915464 0.913703
915762 0.912018
916060 0.910619
916359 0.909371
916657 0.908096
916955 0.906739
917254 0.905266
917552 0.904214
917850 0.903092
918149 0.90214
918447 0.901623
918745 0.901754
919044 0.902852
919342 0.905107
919640 0.908714
919939 0.913752
920237 0.920174
920535 0.927835
920834 0.93642
921132 0.945502
921430 0.954527
921729 0.962858
922027 0.969815
922325 0.974738
922624 0.977049
922922 0.976328
923220 0.972371
923519 0.965239
923817 0.957454
924115 0.945652
924414 0.932265
924712 0.918286
925010 0.904802
925309 0.89291
925607 0.883602
925905 0.87771
926204 0.875789
926502 0.878116
926800 0.884591
927099 0.89475
927397 0.907699
927695 0.92212
927994 0.936263
928292 0.947977
928590 0.954809
928889 0.954115
929187 0.943342
929485 0.92019
929783 0.883057
930082 0.835804
930380 0.770325
930678 0.691413
930977 0.601618
931275 0.504396
931573 0.403755
931872 0.303812
932170 0.208357
932468 0.120536
932767 0.042653
933065 -0.0238229
933363 -0.0781492
933662 -0.120067
933960 -0.149554
934258 -0.166599
934557 -0.171048
934855 -0.162589
935153 -0.140843
935452 -0.105621
935750 -0.0572525
936048 0.00297994
936347 0.0688194
936645 0.145141
936943 0.221498
937242 0.291285
937540 0.347668
937838 0.384663
938137 0.398248
938435 0.387192
938733 0.353372
939032 0.301424
939330 0.237859
939628 0.169846
939927 0.104006
940225 0.045496
940523 -0.00247511
940822 -0.0386532
941120 -0.0634053
941418 -0.0781885
941717 -0.0849929
942015 -0.085862
942313 -0.0825591
942612 -0.0769925
942910 -0.0686291
943208 -0.0583963
943507 -0.0459763
943805 -0.0306578
944103 -0.0114706
944401 0.0126502
944700 0.0426695
944998 0.079244
945296 0.122529
945595 0.172031
945893 0.226566
946191 0.284305
946490 0.34298
946788 0.400115
947086 0.453364
947385 0.500756
947683 0.540934
947981 0.573238
948280 0.597716
948578 0.615029
948876 0.62176
949175 0.627929
949473 0.63137
949771 0.633625
950070 0.636081
950368 0.6399
950666 0.645974
950965 0.654907
951263 0.667014
951561 0.682328
951860 0.700629
952158 0.721474
952456 0.744237
952755 0.768165
953053 0.792425
953351 0.81617
953650 0.838586
953948 0.85895
954246 0.876659
954545 0.891267
954843 0.902491
955141 0.907543
955440 0.911356
955738 0.912134
956036 0.910116
956335 0.905551
956633 0.898657
956931 0.88959
957230 0.878426
957528 0.865157
957826 0.849707
958125 0.831964
958423 0.811826
958721 0.78926
959019 0.764356
959318 0.737377
959616 0.708796
959914 0.679293
960213 0.64975
960511 0.621183
960809 0.594697
961108 0.571378
961406 0.546631
961704 0.531932
962003 0.523145
962301 0.520668
962599 0.524632
962898 0.534923
963196 0.551201
963494 0.572929
963793 0.599419
964091 0.629835
964389 0.663253
964688 0.698652
964986 0.734972
965284 0.771122
965583 0.806034
965881 0.838697
966179 0.868211
966478 0.893827
966776 0.914998
967074 0.931404
967373 0.942978
967671 0.949348
967969 0.95135
968268 0.949867
968566 0.945716
968864 0.939779
969163 0.932962
969461 0.926133
969759 0.920071
970058 0.91543
970356 0.912699
970654 0.912191
970953 0.914016
971251 0.91809
971549 0.924122
971848 0.931634
972146 0.939971
972444 0.948323
972742 0.955763
973041 0.961277
973339 0.963825
973637 0.962388
973936 0.955944
974234 0.943639
974532 0.925223
974831 0.900444
975129 0.869351
975427 0.832319
975726 0.790055
976024 0.743572
976322 0.694153
976621 0.643281
976919 0.592573
977217 0.54369
977516 0.498258
977814 0.457789
978112 0.423629
978411 0.396885
978709 0.378433
979007 0.368852
979306 0.368476
979604 0.377334
979902 0.395195
980201 0.415228
980499 0.449562
980797 0.490608
981096 0.536959
981394 0.586953
981692 0.638715
981991 0.690231
982289 0.739488
982587 0.784574
982886 0.823853
983184 0.856069
983482 0.880482
983781 0.896896
984079 0.905713
984377 0.907855
984676 0.904693
984974 0.897904
985272 0.889314
985571 0.880728
985869 0.873784
986167 0.869802
986466 0.866033
986764 0.869208
987062 0.877021
987360 0.888977
987659 0.904072
987957 0.920816
988255 0.937288
988554 0.951206
988852 0.960012
989150 0.961015
989449 0.95153
989747 0.929066
990045 0.891546
990344 0.837449
990642 0.766081
990940 0.677596
991239 0.573181
991537 0.454969
991835 0.326023
992134 0.19015
992432 0.0517044
992730 -0.0846335
993029 -0.216694
993327 -0.336811
993625 -0.441323
993924 -0.526595
994222 -0.589742
994520 -0.628676
994819 -0.64211
995117 -0.629697
995415 -0.59189
995714 -0.530044
996012 -0.446321
996310 -0.343608
996609 -0.225478
996907 -0.0959875
997205 0.0404575
997504 0.179295
997802 0.316071
998100 0.446599
998399 0.567219
998697 0.674935
998995 0.767556
999294 0.849455
999592 0.907532
999890 0.948913
1000189 0.974825
1000487 0.987093
1000785 0.987962
1001084 0.979932
1001382 0.965616
1001680 0.947556
1001978 0.928132
1002277 0.909434
1002575 0.893181
1002873 0.880682
1003172 0.872783
1003470 0.869884
1003768 0.871954
1004067 0.878579
1004365 0.889026
1004663 0.902344
1004962 0.917431
1005260 0.933159
1005558 0.950947
1005857 0.964465
1006155 0.97565
1006453 0.984019
1006752 0.989349
1007050 0.991652
